# header: 
#   title: Mo100(p,x)Nb95m Isotope production
#   source: ISOTOPIA
#   user: Arjan Koning
#   date: 2025-12-18
#   format: YANDF-0.4
# target: 
#   Z: 42
#   A: 100
#   nuclide: Mo100
# reaction: 
#   type: (p,x)
#   ENDF_MF: 6
#   ENDF_MT: 5
#   residual: 
#     Z: 41
#     A: 95
#     nuclide: Nb95m
#   parameters: 
#     Beam current [mA]:  1.500000E-01
#     E-Beam [MeV]:  1.600000E+01
#     E-Back [MeV]:  1.200000E+01
#     Initial production rate [s^-1]:  1.965534E-21
#     Decay rate [s^-1]:  2.223336E-06
#     Initial production yield [GBq/mAh]:  3.754088E-14
#     Total activity at EOI [GBq]:  4.434856E-10
#     Irradiation time:       0 years   1 days  0 hours  0 minutes  0 seconds
#     Cooling time:       0 years   1 days  0 hours  0 minutes  0 seconds
#     Half-life:       0 years   3 days 14 hours 36 minutes  0 seconds
#     Maximum production:       0 years  40 days  8 hours  3 minutes 29 seconds
#   quantity: 
#     type: Isotope production
#   datablock: 
#     columns: 6
#     entries: 100
##     Time         Activity       Isotopes         Yield     Isotopic_frac.      Time
##     [sec]          [GBq]           []          [GBq/mAh]         []             [h]
   1.728000E+03   9.730597E-12   4.376575E+03   3.754088E-14   2.918684E-10   4.800000E-01
   3.456000E+03   1.942386E-11   8.736360E+03   3.739686E-14   3.302306E-10   9.600000E-01
   5.184000E+03   2.907995E-11   1.307942E+04   3.725340E-14   3.706197E-10   1.440000E+00
   6.912000E+03   3.869898E-11   1.740582E+04   3.711049E-14   4.131078E-10   1.920000E+00
   8.640000E+03   4.828112E-11   2.171562E+04   3.696813E-14   4.575120E-10   2.400000E+00
   1.036800E+04   5.782650E-11   2.600889E+04   3.682632E-14   5.035928E-10   2.880000E+00
   1.209600E+04   6.733526E-11   3.028569E+04   3.668502E-14   5.510906E-10   3.360000E+00
   1.382400E+04   7.680754E-11   3.454608E+04   3.654429E-14   5.997432E-10   3.840000E+00
   1.555200E+04   8.624348E-11   3.879013E+04   3.640410E-14   6.492956E-10   4.320000E+00
   1.728000E+04   9.564324E-11   4.301790E+04   3.626446E-14   6.995076E-10   4.800000E+00
   1.900800E+04   1.050069E-10   4.722945E+04   3.612531E-14   7.501586E-10   5.280000E+00
   2.073600E+04   1.143347E-10   5.142484E+04   3.598674E-14   8.010515E-10   5.760000E+00
   2.246400E+04   1.236267E-10   5.560413E+04   3.584866E-14   8.520137E-10   6.240000E+00
   2.419200E+04   1.328830E-10   5.976739E+04   3.571119E-14   9.028969E-10   6.720000E+00
   2.592000E+04   1.421038E-10   6.391469E+04   3.557418E-14   9.535768E-10   7.200000E+00
   2.764800E+04   1.512893E-10   6.804607E+04   3.543766E-14   1.003951E-09   7.680000E+00
   2.937600E+04   1.604395E-10   7.216160E+04   3.530175E-14   1.053937E-09   8.160000E+00
   3.110400E+04   1.695546E-10   7.626134E+04   3.516627E-14   1.103471E-09   8.640000E+00
   3.283200E+04   1.786347E-10   8.034536E+04   3.503140E-14   1.152502E-09   9.120000E+00
   3.456000E+04   1.876800E-10   8.441371E+04   3.489703E-14   1.200995E-09   9.600000E+00
   3.628800E+04   1.966906E-10   8.846645E+04   3.476314E-14   1.248923E-09   1.008000E+01
   3.801600E+04   2.056667E-10   9.250364E+04   3.462975E-14   1.296272E-09   1.056000E+01
   3.974400E+04   2.146083E-10   9.652534E+04   3.449690E-14   1.343031E-09   1.104000E+01
   4.147200E+04   2.235156E-10   1.005316E+05   3.436461E-14   1.389198E-09   1.152000E+01
   4.320000E+04   2.323887E-10   1.045225E+05   3.423270E-14   1.434774E-09   1.200000E+01
   4.492800E+04   2.412278E-10   1.084981E+05   3.410139E-14   1.479764E-09   1.248000E+01
   4.665600E+04   2.500329E-10   1.124585E+05   3.397063E-14   1.524176E-09   1.296000E+01
   4.838400E+04   2.588043E-10   1.164036E+05   3.384025E-14   1.568020E-09   1.344000E+01
   5.011200E+04   2.675421E-10   1.203336E+05   3.371043E-14   1.611308E-09   1.392000E+01
   5.184000E+04   2.762463E-10   1.242486E+05   3.358104E-14   1.654052E-09   1.440000E+01
   5.356800E+04   2.849171E-10   1.281485E+05   3.345231E-14   1.696265E-09   1.488000E+01
   5.529600E+04   2.935547E-10   1.320335E+05   3.332401E-14   1.737962E-09   1.536000E+01
   5.702400E+04   3.021591E-10   1.359035E+05   3.319594E-14   1.779155E-09   1.584000E+01
   5.875200E+04   3.107305E-10   1.397587E+05   3.306875E-14   1.819859E-09   1.632000E+01
   6.048000E+04   3.192691E-10   1.435991E+05   3.294199E-14   1.860088E-09   1.680000E+01
   6.220800E+04   3.277748E-10   1.474248E+05   3.281534E-14   1.899854E-09   1.728000E+01
   6.393600E+04   3.362480E-10   1.512358E+05   3.268968E-14   1.939172E-09   1.776000E+01
   6.566400E+04   3.446886E-10   1.550322E+05   3.256413E-14   1.978053E-09   1.824000E+01
   6.739200E+04   3.530969E-10   1.588140E+05   3.243935E-14   2.016512E-09   1.872000E+01
   6.912000E+04   3.614729E-10   1.625813E+05   3.231478E-14   2.054559E-09   1.920000E+01
   7.084800E+04   3.698168E-10   1.663342E+05   3.219088E-14   2.092207E-09   1.968000E+01
   7.257600E+04   3.781286E-10   1.700726E+05   3.206730E-14   2.129467E-09   2.016000E+01
   7.430400E+04   3.864085E-10   1.737968E+05   3.194416E-14   2.166349E-09   2.064000E+01
   7.603200E+04   3.946568E-10   1.775066E+05   3.182179E-14   2.202865E-09   2.112000E+01
   7.776000E+04   4.028733E-10   1.812022E+05   3.169974E-14   2.239026E-09   2.160000E+01
   7.948800E+04   4.110583E-10   1.848836E+05   3.157792E-14   2.274840E-09   2.208000E+01
   8.121600E+04   4.192120E-10   1.885509E+05   3.145698E-14   2.310317E-09   2.256000E+01
   8.294400E+04   4.273343E-10   1.922041E+05   3.133625E-14   2.345466E-09   2.304000E+01
   8.467200E+04   4.354255E-10   1.958433E+05   3.121596E-14   2.380297E-09   2.352000E+01
   8.640000E+04   4.434856E-10   1.994686E+05   3.109622E-14   2.414817E-09   2.400000E+01
   8.812800E+04   4.417851E-10   1.987037E+05   0.000000E+00   2.925181E-09   2.448000E+01
   8.985600E+04   4.400910E-10   1.979418E+05   0.000000E+00   3.485793E-09   2.496000E+01
   9.158400E+04   4.384035E-10   1.971828E+05   0.000000E+00   4.085661E-09   2.544000E+01
   9.331200E+04   4.367224E-10   1.964266E+05   0.000000E+00   4.707466E-09   2.592000E+01
   9.504000E+04   4.350478E-10   1.956734E+05   0.000000E+00   5.331841E-09   2.640000E+01
   9.676800E+04   4.333795E-10   1.949231E+05   0.000000E+00   5.939929E-09   2.688000E+01
   9.849600E+04   4.317177E-10   1.941757E+05   0.000000E+00   6.515750E-09   2.736000E+01
   1.002240E+05   4.300623E-10   1.934311E+05   0.000000E+00   7.047774E-09   2.784000E+01
   1.019520E+05   4.284132E-10   1.926894E+05   0.000000E+00   7.529456E-09   2.832000E+01
   1.036800E+05   4.267704E-10   1.919505E+05   0.000000E+00   7.958840E-09   2.880000E+01
   1.054080E+05   4.251339E-10   1.912145E+05   0.000000E+00   8.337583E-09   2.928000E+01
   1.071360E+05   4.235037E-10   1.904812E+05   0.000000E+00   8.669774E-09   2.976000E+01
   1.088640E+05   4.218798E-10   1.897508E+05   0.000000E+00   8.960847E-09   3.024000E+01
   1.105920E+05   4.202620E-10   1.890232E+05   0.000000E+00   9.216709E-09   3.072000E+01
   1.123200E+05   4.186506E-10   1.882984E+05   0.000000E+00   9.443154E-09   3.120000E+01
   1.140480E+05   4.170452E-10   1.875763E+05   0.000000E+00   9.645503E-09   3.168000E+01
   1.157760E+05   4.154460E-10   1.868571E+05   0.000000E+00   9.828441E-09   3.216000E+01
   1.175040E+05   4.138530E-10   1.861406E+05   0.000000E+00   9.995961E-09   3.264000E+01
   1.192320E+05   4.122660E-10   1.854268E+05   0.000000E+00   1.015139E-08   3.312000E+01
   1.209600E+05   4.106852E-10   1.847158E+05   0.000000E+00   1.029746E-08   3.360000E+01
   1.226880E+05   4.091104E-10   1.840075E+05   0.000000E+00   1.043639E-08   3.408000E+01
   1.244160E+05   4.075416E-10   1.833019E+05   0.000000E+00   1.056994E-08   3.456000E+01
   1.261440E+05   4.059789E-10   1.825990E+05   0.000000E+00   1.069953E-08   3.504000E+01
   1.278720E+05   4.044222E-10   1.818988E+05   0.000000E+00   1.082629E-08   3.552000E+01
   1.296000E+05   4.028714E-10   1.812013E+05   0.000000E+00   1.095109E-08   3.600000E+01
   1.313280E+05   4.013266E-10   1.805065E+05   0.000000E+00   1.107465E-08   3.648000E+01
   1.330560E+05   3.997876E-10   1.798143E+05   0.000000E+00   1.119750E-08   3.696000E+01
   1.347840E+05   3.982546E-10   1.791248E+05   0.000000E+00   1.132008E-08   3.744000E+01
   1.365120E+05   3.967275E-10   1.784380E+05   0.000000E+00   1.144274E-08   3.792000E+01
   1.382400E+05   3.952062E-10   1.777537E+05   0.000000E+00   1.156573E-08   3.840000E+01
   1.399680E+05   3.936908E-10   1.770721E+05   0.000000E+00   1.168928E-08   3.888000E+01
   1.416960E+05   3.921811E-10   1.763931E+05   0.000000E+00   1.181356E-08   3.936000E+01
   1.434240E+05   3.906773E-10   1.757167E+05   0.000000E+00   1.193869E-08   3.984000E+01
   1.451520E+05   3.891792E-10   1.750429E+05   0.000000E+00   1.206478E-08   4.032000E+01
   1.468800E+05   3.876869E-10   1.743717E+05   0.000000E+00   1.219193E-08   4.080000E+01
   1.486080E+05   3.862003E-10   1.737031E+05   0.000000E+00   1.232020E-08   4.128000E+01
   1.503360E+05   3.847194E-10   1.730370E+05   0.000000E+00   1.244965E-08   4.176000E+01
   1.520640E+05   3.832442E-10   1.723735E+05   0.000000E+00   1.258033E-08   4.224000E+01
   1.537920E+05   3.817746E-10   1.717125E+05   0.000000E+00   1.271227E-08   4.272000E+01
   1.555200E+05   3.803106E-10   1.710541E+05   0.000000E+00   1.284552E-08   4.320000E+01
   1.572480E+05   3.788523E-10   1.703982E+05   0.000000E+00   1.298011E-08   4.368000E+01
   1.589760E+05   3.773996E-10   1.697448E+05   0.000000E+00   1.311606E-08   4.416000E+01
   1.607040E+05   3.759524E-10   1.690939E+05   0.000000E+00   1.325339E-08   4.464000E+01
   1.624320E+05   3.745108E-10   1.684455E+05   0.000000E+00   1.339214E-08   4.512000E+01
   1.641600E+05   3.730747E-10   1.677995E+05   0.000000E+00   1.353231E-08   4.560000E+01
   1.658880E+05   3.716442E-10   1.671561E+05   0.000000E+00   1.367393E-08   4.608000E+01
   1.676160E+05   3.702191E-10   1.665151E+05   0.000000E+00   1.381703E-08   4.656000E+01
   1.693440E+05   3.687995E-10   1.658766E+05   0.000000E+00   1.396161E-08   4.704000E+01
   1.710720E+05   3.673853E-10   1.652406E+05   0.000000E+00   1.410769E-08   4.752000E+01
   1.728000E+05   3.659765E-10   1.646070E+05   0.000000E+00   1.425529E-08   4.800000E+01
